
IRIS                                   
   wavelength             dl/l            std. dev.

      2.000          0.229340E-05          0.2E-07
      3.000          0.448407E-05          0.4E-07
      4.000          0.923935E-05          0.5E-07
      5.000          0.143747E-04          0.2E-06
      6.000          0.209388E-04          0.1E-06
      7.000          0.291941E-04          0.3E-06
      8.000          0.387944E-04          0.3E-06
      9.000          0.483854E-04          0.7E-06
     10.000          0.591252E-04          0.3E-06
     11.000          0.731256E-04          0.5E-06
     12.000          0.890409E-04          0.4E-06
     13.000          0.103268E-03          0.1E-05
     14.000          0.115608E-03          0.4E-06
     15.000          0.129273E-03          0.1E-05
     16.000          0.142870E-03          0.6E-06
     17.000          0.159124E-03          0.1E-05
     18.000          0.177275E-03          0.9E-06
     19.000          0.192991E-03          0.2E-05
     20.000          0.204402E-03          0.3E-05