
IRIS                                   
   wavelength         n/sec @ sample       std. dev.

      2.000            0.143852E+08         0.6E+06
      3.000            0.963982E+08         0.1E+07
      4.000            0.272372E+09         0.2E+07
      5.000            0.420867E+09         0.2E+07
      6.000            0.571943E+09         0.7E+07
      7.000            0.727192E+09         0.6E+07
      8.000            0.863131E+09         0.2E+08
      9.000            0.986495E+09         0.1E+08
     10.000            0.110118E+10         0.2E+08
     11.000            0.121455E+10         0.2E+08
     12.000            0.129505E+10         0.2E+08
     13.000            0.132065E+10         0.3E+08
     14.000            0.137273E+10         0.2E+08
     15.000            0.139313E+10         0.2E+08
     16.000            0.141850E+10         0.4E+08
     17.000            0.140164E+10         0.3E+08
     18.000            0.145394E+10         0.3E+08
     19.000            0.145818E+10         0.4E+08
     20.000            0.145396E+10         0.1E+08