
IRIS SM                                
   WAVELENGTH        N/SEC          N/SEC @ SAMPLE

      2.000      0.157223E+08        0.148641E+08
      3.000      0.108172E+09        0.949665E+08
      4.000      0.332146E+09        0.270432E+09
      5.000      0.561192E+09        0.417523E+09
      6.000      0.807959E+09        0.571662E+09
      7.000      0.112241E+10        0.729043E+09
      8.000      0.143946E+10        0.845075E+09
      9.000      0.178188E+10        0.982547E+09
     10.000      0.212104E+10        0.107375E+10
     11.000      0.256090E+10        0.123902E+10
     12.000      0.296036E+10        0.129013E+10
     13.000      0.331544E+10        0.129828E+10
     14.000      0.364588E+10        0.134891E+10
     15.000      0.377544E+10        0.137277E+10
     16.000      0.415124E+10        0.141718E+10
     17.000      0.439808E+10        0.142175E+10
     18.000      0.476375E+10        0.150249E+10
     19.000      0.505439E+10        0.141786E+10
     20.000      0.513183E+10        0.147887E+10